! Center RA: 12 56 11.16656,  Dec: -05 47 21.52472 (2000.0)
! Established model.
! Flux (Jy) Radius (mas)  Theta (deg)  Major (mas)  Axial ratio   Phi (deg) T \
! Freq (Hz)     SpecIndex
   7.46358      0.00000      0.00000 
   1.70714    0.0200000      180.000 
  0.219463    0.0282843      135.000 
  0.183030    0.0200000      90.0000 
  0.178500    0.0848528     -135.000 
 0.0833733    0.0400000      90.0000 
  0.159798     0.100000     -143.130 
  0.360349    0.0447213      63.4349 
 0.0742091     0.100000     -126.870 
  0.630839     0.113137     -135.000 
  0.179983    0.0565685      45.0000 
  0.205846    0.0600000      90.0000 
  0.209785     0.200000      0.00000 
  0.162629    0.0632456      108.435 
  0.239466     0.128062     -141.340 
 0.0659966    0.0721110      123.690 
 0.0678577     0.144222     -146.310 
  0.121737     0.200998      5.71060 
 0.0324084     0.208806     -16.6992 
 0.0916917     0.161245     -150.255 
 0.0850637     0.184391      167.471 
 0.0280257     0.178885     -153.435 
 0.0274037     0.215407     -21.8014 
 0.0269225     0.203961      11.3099 
 0.0268706     0.196977     -156.038 
  0.523547     0.205913     -119.055 
  0.205245     0.367696     -135.000 
 -0.103642     0.286356     -155.225 
-0.0685316     0.272029     -72.8973 
  0.173782     0.228035     -127.875 
  0.114794     0.216333     -123.690 
  0.138789     0.200000     -126.870 
-0.0641051     0.272029     -72.8973 
-0.00683371     0.266833     -77.0054 
 0.0276171     0.244131     -124.992 
  0.105982     0.353836     -132.709 
 0.0497615     0.172047     -125.538 
 0.0175819     0.188680     -122.005 
  0.164189     0.400500     -92.8624 
 0.0549136     0.277849     -120.256 
0.00505571     0.260768     -122.471 
0.00256841     0.250599     -118.610 
 0.0185473     0.212603     -131.186 
0.00431627     0.424264     -135.000 
-0.0122276     0.340588     -93.3665 
-0.0638950     0.342345     -96.7098 
 0.0263846     0.368782     -130.601 
 0.0583709     0.316228     -124.695 
 0.0224361     0.197990     -135.000 
 0.0124192     0.184391     -130.601 
 0.0117177     0.430813     -111.801 
 0.0708831     0.305287     -121.608 
 0.0351983     0.356090     -128.157 
0.00404559     0.423792     -109.290 
0.00335178     0.295296     -118.301 
 0.0612968      1.15378     -123.690 
 0.0717374      1.28996     -119.745 
 0.0156770      1.14280     -122.856 
 0.0499590      1.13455     -130.711 
 0.0298148      1.38593     -135.000 
0.00422925      1.13877     -120.619 
-0.0409904      1.27812     -110.136 
0.00180912      1.12872     -119.745 
-0.0268930      1.28515     -110.973 
-0.00590415     0.950789     -112.249 
 0.0294574      1.14769     -131.468 
 0.0114001      1.16499     -124.509 
 0.0116246      1.17644     -125.311 
0.00556410      1.30000     -120.510 
 0.0517090      1.33776     -121.551 
-0.0432513     0.969330     -111.801 
 0.0184084      1.32740     -120.816 
0.00566997      1.21606     -126.304 
0.00488451      1.39786     -123.917 
0.00850483      1.20433     -125.538 
0.00739622      1.40911     -124.592 
0.00257586      1.19281     -124.756 
-0.0190854      1.29244     -111.801 
 0.0103768      1.12161     -129.936 
-0.00339707      1.11319     -107.784 
0.00134058      1.10887     -129.144 
  0.188788     0.410366     -133.025 
 0.0534532     0.878180     -120.069 
0.00513178     0.256125     -141.340 
 0.0204385     0.244131     -145.008 
 0.0500423     0.885889     -118.301 
-0.0167312     0.906863     -138.576 
0.00979936     0.876584     -117.150 
0.00350724     0.868332     -118.926 
-0.0184364      1.01863     -133.409 
 0.0341088      1.09344     -129.806 
 0.0221712     0.260768     -147.529 
0.000176785      1.09836     -123.111 
-0.0141281     0.653911     -113.429 
 0.0238830     0.277849     -149.744 
-0.0156594     0.943398     -111.125 
-0.0207638     0.746726     -110.376 
0.00495331     0.328024     -127.569 
0.000944164     0.888369     -121.185 
 0.0761413     0.295296     -151.699 
 0.0140286      1.08757     -122.229 
0.00309900     0.852760     -129.289 
 0.0244966     0.313050     -153.435 
0.00795417     0.425206     -131.186 
0.00136116     0.865563     -130.314 
0.00939603     0.440454     -129.472 
0.000858216     0.878635     -131.309 
0.00160469     0.788162     -125.707 
0.00260131     0.396989     -130.914 
0.00190191     0.800000     -126.870 
-0.00332900     0.765506     -109.855 
0.00516677     0.344093     -125.538 
0.000366109     0.760263     -125.362 
0.000365648     0.748866     -124.114 
 0.0259376      2.92882     -123.582 
0.00865563     0.421901     -95.4403 
 0.0121891     0.332866     -122.735 
0.00430111     0.424264     -98.1301 
0.00391145      2.26883     -123.130 
 0.0111129     0.427551     -100.784 
 0.0108894      2.27982     -123.551 
0.00308445      3.16006     -126.507 
-0.0138973      2.73211     -126.367 
 0.0137676     0.431741     -103.393 
 0.0136098      3.14821     -126.215 
-0.00366418      2.74401     -126.703 
-0.00198701      2.74117     -122.183 
-0.0101898      3.40828     -127.610 
 0.0107316      2.91781     -123.254 
 0.0121263      2.29094     -123.968 
-0.0116664      2.72029     -126.027 
0.00256206      3.20624     -130.446 
 0.0371507     0.436807     -105.945 
0.000587102      2.10618     -120.217 
0.00538480      3.13643     -125.920 
0.00391190      2.09619     -119.745 
0.00948198      3.19105     -130.679 
 0.0193626     0.322490     -119.745 
0.00492138      2.90689     -122.925 
-0.000956452      2.53622     -131.483 
0.00249783      3.15265     -125.707 
-0.00905169      2.70858     -125.685 
0.00943355      2.30217     -124.380 
-0.000893346      2.56445     -131.522 
0.00790232      3.14102     -125.410 
0.00776584      2.08634     -119.268 
-0.0100797      2.57775     -131.855 
0.00213413      2.89607     -122.593 
 0.0808630     0.442719     -108.435 
0.00744269     0.313050     -116.565 
-0.00672701      2.69696     -125.340 
0.000383423      2.31871     -124.101 
 0.0415753     0.297321     -70.3462 
0.00107710      2.88534     -122.258 
0.000707112      2.08892     -120.493 
0.00200400      2.32998     -124.509 
0.00594823     0.107703     -111.801 
-0.000689597      2.68544     -124.992 
0.000654756      2.87472     -121.921 
0.00158729      2.06930     -122.768 
-0.000321295      2.21603     -126.560 
0.000323918      2.08019     -123.232 
0.000335862      2.09914     -120.964 
-0.00579644      3.12128     -120.838 
 0.0434661     0.340588     -130.236 
0.00448042     0.937443     -123.690 
0.00296750      2.38076     -125.426 
 0.0155645      2.35287     -125.311 
 0.0114689     0.954149     -123.024 
0.00575302     0.128063     -128.660 
0.00396463      2.11896     -123.840 
0.00416798     0.141421     -135.000 
0.00340761      3.24401     -126.729 
-0.00437008      2.75601     -127.036 
0.00427554      2.10238     -124.144 
0.00257915      2.34137     -124.912 
0.000892590      3.21602     -126.656 
0.00175601      2.31353     -124.789 
0.00213130      2.11367     -124.592 
0.00164498      1.22931     -111.975 
-0.00247607      2.52301     -131.143 
-0.00244160     0.360555     -93.1798 
0.000822282     0.156205     -129.806 
-0.00160671      2.76810     -127.367 
0.00876062     0.382100     -132.879 
0.00502020     0.305287     -148.392 
0.00144561      3.28402     -127.079 
-0.00392871      2.82963     -124.926 
0.00448615      2.40741     -123.822 
0.00895171      1.25539     -112.479 
 0.0101467     0.995389     -112.443 
0.00850998      3.27200     -126.800 
0.000779031      2.42405     -123.559 
-0.00149649      3.10413     -121.027 
-0.00800391     0.814125     -117.824 
-0.000710519      2.84113     -125.256 
0.00809180      2.84345     -120.895 
-0.00204837      2.86901     -125.352 
0.00205517      1.31042     -105.945 
0.00325995      2.44074     -123.299 
-0.0273194      1.12071     -124.824 
-0.00202534      3.13158     -121.152 
0.00660811     0.100000     -90.0000 
-0.00359650      2.94822     -126.170 
0.00117825     0.101980     -101.310 
-0.0180665      2.90854     -125.767 
0.00123405      2.45177     -123.690 
-0.00116178      2.98804     -126.563 
0.00168589      1.30292     -107.879 
-0.00162908      3.11108     -120.522 
-0.00112003      3.09386     -120.710 
0.00110078      2.46844     -123.433 
0.00916446     0.101980     -78.6901 
-0.00972554      1.20416     -122.106 
-0.000569069      3.01602     -126.642 
0.00345152      2.46293     -124.077 
0.00840283      2.82631     -121.103 
-0.000524605      3.08370     -120.390 
0.000513692      1.30920     -108.712 
-0.000997417      3.10097     -120.203 
 0.0117567     0.976934     -112.891 
-0.00153353      3.03210     -126.416 
0.00147636     0.304631     -113.199 
0.000479535      1.24788     -111.631 
 0.0109559     0.300000     -90.0000 
-0.00234551      3.09095     -119.883 
-0.000940466     0.823650     -119.055 
 0.0122469     0.300666     -93.8141 
-0.000485409      3.04821     -126.193 
-0.00583804      3.06438     -125.972 
0.00317191     0.305941     -101.310 
0.00767301     0.302655     -97.5947 
0.00109495     0.107703     -68.1986 
 0.0202442     0.156205     -50.1944 
-0.00259334      3.08104     -119.560 
0.000881085      2.40865     -125.538 
-0.00568817     0.831865     -117.181 
-0.00852367      2.89689     -125.446 
0.00278071      2.47419     -124.461 
0.000417965      2.39240     -125.816 
0.000718582     0.310484     -104.931 
0.00275884      2.42033     -125.923 
0.000824269      1.17745     -110.898 
-0.00754634      1.21491     -122.905 
 0.0102050      1.15169     -110.323 
-0.00418341      3.07122     -119.236 
-0.00694562      3.08058     -125.754 
0.00335238     0.300666     -86.1859 
0.00164626      2.12509     -125.036 
0.00359743     0.449444     -110.854 
0.00144791      3.25214     -129.760 
0.00105238     0.302655     -82.4054 
0.000723636      2.71448     -129.319 
-0.00538812     0.849706     -116.565 
0.000362361      2.43656     -125.647 
0.000711754      1.34134     -110.056 
-0.000350368      1.31727     -120.069 
 0.0396499      1.55589     -133.958 
-0.00230699      1.08812     -126.027 
0.000941626     0.353836     -137.291 
-0.00236516      1.42562     -124.136 
0.00313402      3.26754     -129.536 
0.000470733      1.15879     -111.251 
0.00731775      1.13296     -110.674 
0.00171208     0.156205     -140.194 
0.000881336      3.28299     -129.314 
0.000431794     0.172047     -144.462 
0.00257534      1.54156     -134.474 
0.00260485      1.41450     -133.854 
0.000459531      2.52982     -124.695 
0.000880271     0.320624     -93.5763 
-0.000441898      1.38708     -118.413 
0.00124342      2.51849     -124.321 
-0.000822823      1.40471     -118.025 
-0.00165742      3.09684     -125.538 
0.000403593     0.320000     -90.0000 
 0.0206547      2.83196     -132.138 
0.00332981      3.77974     -129.417 
0.00550255     0.820731     -136.975 
0.00214034      3.72462     -125.824 
-0.0132067      2.36136     -128.811 
-0.0128639     0.627694     -120.651 
-0.00984668      3.93629     -127.569 
0.00950948      3.75255     -125.893 
-0.00912419     0.824621     -112.834 
0.00650401     0.806226     -136.005 
0.00155488     0.169706     -45.0000 
-0.00265848      1.15966     -122.320 
0.00185014      2.49070     -124.200 
0.000956564     0.384188     -141.340 
0.000468855     0.396989     -139.086 
0.00130067     0.791960     -135.000 
-0.000856745      3.09231     -126.055 
0.000431940      3.73636     -126.072 
0.00126253     0.438634     -114.228 
 0.0103276      1.64596     -175.121 
-0.00420269      1.17881     -14.7436 
-0.00770412      1.50652      95.3322 
0.000686304      1.62788     -174.359 
0.00710998      1.02078     -2.24575 
-0.00100235      3.38337     -170.816 
-0.00753299     0.674685     -11.9761 
-0.00698671      3.40312     -170.870 
-0.00218586     0.228035      52.1250 
0.00332571      1.76465      54.6888 
0.00184392      1.60798     -174.289 
-0.00385326     0.694262     -11.6336 
-0.00706841      1.69446      168.425 
-0.00988885      3.06653      176.260 
0.00283081     0.538145      48.0128 
-0.00338786      1.15948     -14.9951 
-0.00750906     0.216333      56.3099 
-0.00809947      1.26000      180.000 
0.00890867      3.39612     -142.658 
-0.00160712      3.61735     -158.257 
0.00644301      1.62604     -175.061 
-0.000561540     0.999600     -70.1148 
0.00362535      1.77629      54.1623 
-0.00208592      1.52840      96.0090 
0.00774143      1.70294      40.2364 
-0.000270487     0.495177      136.637 
-0.00354331      1.00658     -69.0442 
0.00150424      2.74022      146.310 
-0.00152694     0.523450      136.548 
-0.00605209      1.86762     -99.8658 
-0.00246063      3.25650     -152.176 
-0.00120291      3.14579     -101.739 
0.000250767      3.76324     -150.029 
0.00169457      3.27054     -160.346 
0.00115382      4.60977     -139.399 
0.00534062      3.74593     -149.876 
-0.00179429      2.39641     -83.2902 
0.00156573      1.00080     -2.29061 
0.000468729      1.28763     -43.1118 
-0.00870521      1.71406      168.559 
0.00225508      3.38142     -83.5475 
0.00305331      2.76796      146.195 
0.00178953      1.78807      53.6428 
-0.00492127      3.24826     -151.699 
0.00385735      3.25171     -160.228 
0.00270402     0.762365      85.4860 
-0.00343953      2.78410     -114.171 
-0.00500366      1.25873      135.644 
0.00106882      1.31590     -43.1524 
-0.00125626      3.14178     -101.381 
-0.000416632      1.50851      96.0885 
-0.000637195      1.39313      39.1737 
-0.000847980      1.90252     -167.863 
0.00276966      2.91671     -154.841 
0.00326378      3.38373     -83.2110 
-0.00337138      3.10780      175.941 
0.000613006      1.80000      53.1301 
0.00193474     0.980816     -2.33731 
0.000206010      3.45398     -104.760 
-0.00249134      1.39714      76.7595 
-0.00448547      1.92208     -167.989 
0.00343267      3.45913     -105.081 
-0.00116170      1.38058      38.5302 
0.00282045      2.75136      145.963 
0.000200017      4.59461     -139.236 
-0.00170664      4.65382     -133.781 
0.00116720      1.82800      53.0047 
0.00414072      1.30138     -43.7546 
-0.00804831      3.26588     -151.866 
-0.00227849      2.04841     -62.6844 
-0.00167161      3.11448     -100.733 
0.00163535      2.84253     -177.580 
0.00236883      3.24500     -160.560 
0.000921302      1.84011      52.5073 
0.000733268      3.09270     -174.806 
-0.00432531      1.36499      39.0531 
-0.00103527      3.56455      177.105 
-0.00148842      1.80898      174.289 
0.00103944      2.70703      145.840 
0.00281624     0.960833     -2.38595 
0.00224769      3.07278     -174.772 
0.00218325     0.761052      86.9872 
-0.000352988      3.05529     -109.502 
-0.00425944     0.688186     -144.462 
0.000868765      1.85235      52.0165 
0.00193466      2.93483     -155.007 
-0.00666713      1.84272     -115.731 
-0.00285824      4.66768     -133.958 
-0.00384480      2.76586     -114.341 
0.000339306      4.58157     -139.426 
-0.00449090      3.08759     -100.072 
-0.000806767      1.14018     -15.2551 
0.00368367      3.22614     -160.442 
0.00462745      2.86252     -177.597 
0.00493768      3.72865     -149.721 
0.00311956      3.67315     -74.5260 
0.000987938      1.86473      51.5321 
-0.00235986      3.43953     -171.304 
0.00258345      1.53101      56.7251 
0.00205907      2.73481      145.729 
0.00229232      2.62640      163.635 
0.000977844      3.05287     -174.738 
-0.00218766      2.75485      153.249 
-0.00215714      2.31672      152.771 
-0.00220950      3.08649      176.285 
0.000757768     0.867640      154.026 
0.00253851      1.04690      6.58195 
0.00207037      1.87723      51.0542 
0.000631387      3.09095     -175.175 
0.00161441      3.46439     -105.400 
0.000463309      2.69050      145.601 
-0.00116363      3.76085     -141.911 
0.00166003      3.07103     -175.143 
-0.00132248      1.35558     -68.3556 
-0.00255956      3.00167      173.112 
0.00340550     0.940851     -2.43665 
-0.000730720      1.12089     -15.5241 
0.00212817      1.88987      50.5826 
0.000848894     0.328024      142.431 
0.00253032      2.71831      145.491 
0.00472837      3.20063     -160.659 
-0.000847964      1.26491      124.695 
-0.00304139      3.28353     -152.030 
0.000843375      1.47851      156.903 
0.00275899      3.05110     -175.112 
-0.00191999      2.88201     -164.710 
-0.00178638      2.30764      153.213 
-0.00110491      1.94165     -168.111 
0.00260979      2.71662     -149.470 
0.00109283      2.64560      163.757 
0.00138643      3.67853     -74.2258 
-0.00149703      4.68158     -134.135 
-0.00150160     0.698570     -13.2405 
0.00149629      1.05603     -142.696 
-0.00176256      1.34833     -69.1455 
0.00107691      1.06677      6.45882 
0.000407911      1.46014      156.595 
0.00121155      1.54208      56.1038 
-0.000666958      1.27640      125.433 
-0.000399878     0.188680      57.9946 
0.000662221      3.65387     -74.4423 
-0.000529518      1.45836     -25.1593 
-0.000133089      1.34952      39.5881 
0.000131183      2.70185      145.251 
 0.0184379    0.0894427     -63.4350 
0.00617329     0.364966     -80.5377 
0.000228061     0.447214     -100.305 
0.00725201     0.451221     -102.804 
0.00845494     0.345254     -79.9920 
-0.00335832     0.404969     -122.905 
 0.0167780     0.420476     -154.654 
 0.0155491     0.100000     -53.1301 
-0.00467619     0.272029     -143.973 
0.00239335     0.402492     -153.435 
 0.0223421      3.26497     -130.030 
 0.0225438     0.735935     -132.797 
 0.0150706      1.55795     -131.878 
-0.00110653      3.07675     -128.136 
-0.00109554      3.46468     -129.848 
 0.0322378     0.412311     -22.8337 
0.00515923     0.398497     -72.4744 
 0.0160119     0.404969     -69.7752 
0.00322348     0.440000     -90.0000 
 0.0113499     0.430813     -21.8014 
-0.0845224     0.228035     -74.7449 
-0.0343979     0.234094     -70.0169 
0.00194764     0.316228     -71.5651 
0.00161570     0.291204     -74.0546 
-0.0187766     0.223607     -79.6952 
-0.0155182     0.220907     -84.8056 
-0.0171931     0.379473     -71.5651 
-0.00997232     0.250599     -61.3895 
 0.0197795     0.278568     -68.9625 
-0.00419944     0.360555     -70.5600 
-0.00655363      1.16103     -132.207 
-0.00225577      1.14978     -130.061 
-0.00695752     0.816088     -126.027 
0.00158472     0.972008     -126.634 
-0.00235622      1.13701     -129.289 
0.00368070      1.02176     -139.764 
0.000957117     0.984073     -127.569 
-0.00299500      1.12446     -128.501 
! Tentative model.
! Flux (Jy) Radius (mas)  Theta (deg)  Major (mas)  Axial ratio   Phi (deg) T \
! Freq (Hz)     SpecIndex
-0.00472958     0.800250     -91.4321 
0.00340021      1.00717      6.84277 
0.00683377      1.28701     -44.3704 
-0.00488872      1.12285     -94.0856 
-0.000565351      3.40312     -170.870 
0.00582209      2.65932      164.291 
-0.00234631      2.04841     -62.6844 
0.00361458      1.41209      164.389 
0.00475004     0.858836      152.241 
-0.00107404      3.38337     -170.816 
-0.00255421      1.25873      135.644 
0.000362730      2.76007     -66.9650 
-0.00185015      1.87115     -100.469 
0.00102923      1.64596     -175.121 
0.00392516      2.76796     -66.5840 
0.000860695      2.55601      142.951 
-0.00463756      3.41977     -171.254 
0.00452643      1.02703      6.70984 
0.00829853      2.84345     -177.178 
-0.00251661      1.85149     -116.288 
0.00176720      3.26386     -160.677 
0.000984705      2.57200      143.219 
-0.000165422     0.984886     -77.0926 
0.00370896      3.03486     -174.327 
0.00230000      3.38024     -142.452 
0.00307224     0.761052      86.9872 
-0.00251923     0.228035      52.1250 
-0.00233198     0.980612     -78.2317 
-0.00149955      1.43694      8.80679 
0.000630356      2.58805      143.484 
-0.00383581      4.55403     -141.419 
-0.00106935      3.61735     -158.257 
0.000595051      2.99933     -155.999 
-0.00303344      4.68158     -134.135 
-0.000740140      1.24016     -179.076 
-0.000154479     0.670820     -10.3048 
0.000307067      2.60415      143.746 
0.00202691      3.24500     -160.560 
-0.00287953     0.674685     -11.9761 
0.000302249      2.62031      144.005 
-0.00279876      3.02152      173.157 
0.00287834      1.69446     -30.4998 
0.000149520      2.63651      144.260 
0.000442436      2.65277      144.513 
-0.00126684      3.05791     -99.0311 
-0.00108735      2.03931     -63.1837 
0.000992300      2.66908      144.762 
0.000285995      3.70864     -150.255 
-0.00122640      3.63593     -158.374 
0.00440713      3.01496     -174.289 
-0.000686798      1.86944     -116.017 
0.000283061      1.56984      55.9050 
0.00209502      3.39612     -142.658 
0.00135204      2.68544      145.008 
0.00247737      2.72683     -149.108 
0.00183373      1.55872      56.5138 
0.000665974      3.72602     -150.408 
-0.000274881      1.27781      39.9204 
0.00208551      1.09289     -145.437 
0.00310622      3.23839     -160.894 
0.000397265      1.46014      156.595 
0.000516490      1.34104      107.354 
0.000134610     0.841190      151.607 
-0.00103136      1.29321      39.3518 
-0.00140819      1.57099     -21.6660 
-0.00115355      3.06111     -99.4008 
0.00115028     0.300000      126.870 
0.00152637      1.31529     -44.3839 
0.00101193     0.780256      88.5312 
-0.000633217      1.10291     -94.1596 
-0.000880980      1.86075     -115.463 
0.000881148      2.70185      145.251 
-0.000377394      2.44818      175.314 
-0.000499738      3.00167      173.112 
-0.000499394      2.91548     -165.296 
0.000499419      1.51222     -110.113 
-0.000248748     0.976729     -79.3803 
0.000738734      2.99506     -174.251 
0.000246000      1.57709     -12.4500 
-0.000245444      3.66191     -158.199 
0.000122878      3.71860     -149.988 
