! Center RA: 08 54 48.87493,  Dec: +20 06 30.64090 (2000.0)
! Established model.
! Flux (Jy) Radius (mas)  Theta (deg)  Major (mas)  Axial ratio   Phi (deg) T \
! Freq (Hz)     SpecIndex
   1.56325      0.00000      0.00000 
  0.420045    0.0200000      180.000 
  0.185562    0.0282842      135.000 
  0.427434     0.152315     -23.1986 
  0.119134    0.0447213      116.565 
  0.178982    0.0600000      90.0000 
0.00452977     0.134164     -26.5651 
0.00447008    0.0632455     -71.5651 
0.00868620    0.0600000     -90.0000 
 0.0123619    0.0632457     -108.435 
 0.0116526    0.0721111     -123.690 
 0.0144979    0.0848528     -135.000 
 0.0165675     0.100000     -143.130 
 0.0178167     0.116619     -149.036 
 0.0144830     0.134164     -153.435 
  0.101825     0.152315     -156.801 
 0.0978829    0.0632454      71.5651 
0.00437510    0.0721110      56.3100 
  0.158420     0.205913     -60.9454 
 0.0100298     0.216333     -56.3099 
 0.0461284     0.483735     -29.7449 
 0.0358483     0.501199     -28.6105 
  0.101471     0.545894     -28.4429 
0.00675581     0.256125     -51.3402 
 0.0545773     0.244131     -55.0080 
 0.0432325     0.196977     -66.0375 
-0.0597487     0.518845     -27.5528 
 0.0226414     0.189737     -71.5651 
 0.0945695     0.536656     -26.5651 
 0.0138175     0.184391     -77.4712 
 0.0104629     0.181108     -83.6598 
 0.0509054     0.180000     -90.0000 
 0.0164264     0.325576     -42.5105 
  0.105446     0.565685     -81.8699 
0.00371360     0.568859     -79.8753 
 0.0146930     0.659697     -104.036 
0.00562927     0.553173     -77.4712 
0.00608126     0.557853     -75.4655 
0.000793813     0.563205     -73.4956 
 0.0356769     0.311127     -45.0000 
 0.0283102     0.328024     -37.5686 
 0.0214207     0.332866     -32.7352 
0.00785161     0.312410     -50.1944 
 0.0511484     0.357771     -26.5651 
 0.0153457     0.316228     -55.3048 
0.00341354     0.312410     -39.8056 
0.00160726     0.305287     -58.3925 
 0.0257855     0.313050     -63.4350 
  0.153135     0.340000     -28.0725 
  0.100794     0.323110     -68.1986 
 0.0181738      1.23223     -125.754 
 0.0136695      1.48405     -142.667 
0.00297835      1.50000     -143.130 
0.00514749      1.45602     -142.815 
0.00892118      1.50333     -123.056 
0.00645916      1.22066     -124.992 
0.000721236      1.47201     -143.286 
 0.0108900      1.51433     -123.690 
0.000689464      1.42801     -142.970 
0.000228308      1.54402     -143.427 
0.000222696      1.57201     -143.276 
0.00148761      1.38405     -142.633 
0.00294633      1.20930     -124.216 
0.000433435      1.58808     -143.707 
0.00235680      1.61604     -143.556 
0.00763916      1.34015     -142.275 
0.000358300      1.63218     -143.973 
0.00102680      1.64402     -143.409 
0.00275062      1.19817     -123.425 
0.00271788      1.66012     -143.820 
0.000595104      1.48661     -123.476 
0.00468706      1.37594     -122.535 
0.00190172      1.67631     -144.224 
0.00112785      1.18727     -122.619 
0.000385216      1.34833     -122.276 
0.000360581      1.33776     -121.551 
 0.0165497     0.796994     -72.4744 
 0.0130279     0.593970     -45.0000 
0.00647251     0.791202     -73.8557 
 0.0180383     0.698570     -103.241 
0.00934131     0.581378     -49.1849 
 0.0135868     0.777946     -72.0309 
 0.0294791     0.594643     -47.7263 
0.00541692     0.703420     -104.826 
0.00245972     0.480000     -90.0000 
 0.0150533     0.360555     -19.4400 
 0.0161831     0.331059     -64.9831 
0.00752915     0.331059     -25.0169 
0.00260712     0.503587     -96.8428 
0.00532867     0.506360     -99.0903 
 0.0237980     0.322490     -60.2551 
0.00293902     0.694262     -101.634 
0.00824185     0.341760     -20.5560 
0.00156906     0.785875     -75.2564 
0.00191638     0.533667     -102.995 
0.000382329     0.766551     -74.8760 
0.00360778     0.584123     -51.9530 
 0.0234552     0.305287     -31.6075 
 0.0104436      1.63377     -140.464 
0.000385656      1.61839     -140.013 
0.000740919     0.728011     -105.945 
0.00289659     0.460000     -90.0000 
0.00292721     0.722772     -104.421 
0.00531725     0.460435     -92.4896 
 0.0179237     0.608276     -46.3322 
0.000145836     0.481664     -94.7636 
0.00738101     0.718053     -102.875 
0.00786850     0.483735     -97.1250 
0.00813015      1.46860     -119.358 
 0.0325246     0.288444     -33.6901 
0.00175163      1.63670     -141.450 
0.00372260      1.76782     -135.458 
0.00280076     0.713863     -101.310 
0.00279992      1.65239     -141.882 
0.000446983     0.710211     -99.7276 
0.00231487     0.707107     -98.1301 
0.00177081      1.64924     -140.906 
0.00587200     0.550273     -109.093 
0.000770590      1.78191     -135.000 
0.000427598      1.26491     -124.695 
 0.0299405     0.335261     -72.6460 
 0.0230108     0.313049     -26.5651 
0.00124896     0.341760     -69.4440 
 0.0163423     0.349285     -76.7595 
0.00109997     0.362215     -83.6598 
0.00422476     0.440000     -90.0000 
 0.0342482     0.345254     -79.9920 
0.000420971     0.380526     -86.9872 
0.000442085     0.420000     -90.0000 
0.00425521     0.392938     -14.7436 
0.00345863     0.284253     -39.2894 
0.000287464     0.772528     -111.251 
-0.00923133     0.814371     -114.677 
0.00547952     0.702567     -94.8991 
0.00144333     0.822922     -115.942 
0.00241537     0.831865     -117.181 
0.000724994     0.849706     -116.565 
0.00508861      1.40000     -143.130 
0.00272602      1.41605     -143.616 
0.00271293      1.38809     -143.791 
 0.0171123     0.373631     -15.5241 
 0.0191929     0.272029     -36.0274 
 0.0123328     0.269072     -41.9872 
0.000152792      1.43220     -144.090 
0.00407535     0.407922     -11.3099 
 0.0165140     0.295296     -28.3008 
 0.0100317     0.388330     -11.8887 
0.00339833     0.300000     -53.1301 
0.00492346     0.323110     -21.8014 
0.00517340     0.354401     -16.3896 
 0.0248155     0.277849     -30.2564 
0.00345257      1.38924     -112.874 
0.00134638      1.39714     -113.629 
0.00356852      2.38537     -123.024 
0.000430320      1.43178     -114.775 
0.00128996      1.52118     -118.250 
0.000573471      2.12659     -121.149 
7.45791e-05      1.36528     -121.827 
0.00395004      2.40217     -122.764 
0.00159194      2.11632     -120.685 
0.00267105      1.53075     -118.909 
0.000409488      1.38679     -123.232 
9.08357e-05      1.38159     -112.109 
3.41057e-05      1.32484     -118.887 
0.000559500      1.39786     -123.917 
3.28271e-05      1.31529     -118.124 
6.32426e-05      1.30599     -117.350 
0.000117446      1.29692     -116.565 
0.000107498      1.28810     -115.769 
0.000143668      1.27953     -114.963 
8.61335e-05      1.27122     -114.146 
 0.0117202     0.996393     -128.480 
0.00110018      1.47105     -133.898 
0.00418922      2.13063     -122.347 
0.00317253     0.466905     -99.8658 
0.000951613      1.48499     -134.454 
0.00181862     0.444072     -97.7652 
0.00238218      1.73678     -125.154 
0.000894648      1.49907     -135.000 
0.000827169      1.51327     -135.535 
0.00106353      2.14756     -122.062 
0.000793673     0.441814     -95.1944 
0.00143322      2.12000     -121.891 
0.00101955      1.52761     -136.061 
0.00546623     0.382099     -96.0090 
0.000215824     0.966023     -117.096 
0.00117851     0.957079     -116.030 
0.00102029      1.54208     -136.577 
0.00137308      1.72534     -124.611 
0.000856893      2.13701     -121.608 
0.000258283     0.463897     -97.4314 
0.00403885     0.572713     -114.775 
0.00115737      2.10950     -121.430 
0.00134495     0.380526     -93.0128 
0.00240545      1.55666     -137.083 
0.00423588     0.984073     -127.569 
0.000892862     0.384708     -98.9726 
0.000731418     0.975295     -118.142 
0.000946898     0.956034     -127.349 
0.00789176      1.02078     -92.2457 
0.00292275      1.02020     -91.1233 
 0.0129841     0.256125     -38.6598 
0.000901027     0.384708     -8.97263 
0.00233497     0.368782     -12.5288 
0.00551473     0.364966     -9.46233 
0.00182084     0.401995     -84.2894 
0.00596357     0.345253     -10.0080 
0.00972318     0.282843     -45.0000 
0.000975662     0.304631     -23.1986 
0.00108062     0.335261     -17.3540 
0.00588081     0.260768     -32.4712 
7.03501e-05     0.349285     -13.2405 
0.00478953     0.325576     -10.6197 
0.00515285     0.316228     -18.4350 
0.00163470     0.286356     -24.7751 
0.00833846     0.263059     -8.74619 
 0.0151681     0.260768     -4.39871 
0.000297573     0.121655     -80.5377 
0.00158319     0.120000     -90.0000 
0.00267414     0.280713     -4.08563 
0.00468325     0.260000      0.00000 
0.00699752     0.682642     -95.0425 
0.000248680     0.297321     -19.6538 
0.000473657     0.268328     -26.5651 
0.00885267     0.144222     -56.3099 
0.00566152     0.134164     -63.4349 
0.00389115     0.681175     -93.3665 
 0.0144744     0.126491     -71.5651 
 0.0127014     0.240832     -4.76367 
0.00263165     0.684690     -96.7098 
0.00508753     0.243311     -9.46236 
0.000109071     0.364966     -80.5377 
0.000356612     0.300000     -36.8699 
0.000462929     0.412311     -14.0363 
0.00273362     0.316228     -34.6952 
-9.49924e-05     0.322490      172.875 
-0.00217111     0.302655      172.405 
0.00195306     0.116619     -59.0363 
-0.00163715     0.282843      171.870 
-0.0162960     0.325576     -169.380 
-0.000867981     0.263059      171.254 
-0.0112265     0.170880      159.444 
0.00993254     0.340588     -40.2364 
0.00367851     0.339411     -45.0000 
 0.0296099     0.353836     -42.7094 
-0.00134724     0.305941     -168.690 
-0.0117636     0.240000     -90.0000 
-0.00102906     0.286356     -167.905 
-0.00331731     0.266833     -167.005 
0.00103011     0.280000      0.00000 
-0.00198930     0.247386     -165.964 
-0.00296231     0.228035     -164.745 
 0.0182873     0.156205     -50.1944 
-0.00482411     0.208806     -163.301 
-0.00299264     0.189737     -161.565 
-0.00242724     0.170880     -159.444 
-0.00622757     0.220000     -90.0000 
0.00337321     0.280713      4.08559 
-0.00379330     0.178885     -153.435 
-0.000154563     0.107703     -158.199 
0.00677853     0.172047     -54.4623 
-0.000779654    0.0894428     -153.435 
-0.000543227     0.152315      156.801 
0.00316988     0.368782     -40.6013 
-0.000348081     0.134164      153.435 
0.00148890     0.320000     -180.000 
0.00151534      1.49586     -150.350 
-0.00618261      1.21211     -127.626 
0.00741654      1.47851     -149.967 
-0.00420795      1.18406     -127.451 
-0.00399707      1.19633     -128.211 
0.00145353     0.701142     -86.7295 
0.00685107      1.52118     -129.130 
-0.00536750     0.716938     -59.8586 
-0.000493443     0.311127     -135.000 
0.00211983     0.681175     -86.6335 
-0.00871876     0.325576     -132.510 
-0.00100782      1.22442     -128.367 
-0.00272666      1.23693     -129.094 
0.00421760      1.66433     -147.265 
0.00160301      1.50572     -129.611 
0.00243637      1.46123     -149.574 
0.00442248      1.55795     -119.197 
0.00336532     0.169706     -45.0000 
-0.00576482     0.572014     -126.469 
0.00370366     0.682642     -84.9575 
-0.00108483      1.24964     -129.806 
0.000762875     0.521536     -57.5288 
0.00144236      1.32966     -111.161 
0.00170286      1.59963     -137.534 
-0.000106543      1.56474     -125.112 
-0.00757182      1.55332     -124.509 
0.00226649     0.240000      0.00000 
0.000561383     0.325576     -79.3803 
5.13601e-05     0.322490     -82.8750 
0.000922727     0.310484     -75.0686 
9.84165e-05     0.511077     -59.4208 
0.000183696     0.501199     -61.3895 
0.00108925     0.316228     -71.5651 
0.00134409      1.44402     -149.172 
0.000173110     0.491935     -63.4350 
4.36497e-05     0.304631     -66.8014 
0.00748761      1.56780     -119.836 
0.000473251     0.780256     -88.5312 
0.000165264     0.483322     -65.5560 
0.00987284     0.297321     -42.2737 
0.000432359      1.58493     -137.045 
0.000273847     0.475395     -67.7510 
-8.02958e-05     0.596657     -103.570 
-0.00433335     0.639062     -110.136 
-0.00304918     0.734302     -60.6422 
0.00189470     0.297321     -47.7263 
-0.00137505      1.59261     -125.287 
0.00115488     0.449444     -69.1455 
0.00446795     0.664831     -83.0888 
0.00462110     0.184391     -49.3987 
0.00482666      1.57137     -137.579 
0.000490691     0.442719     -71.5651 
-0.00645768      1.72047     -144.462 
3.32490e-05      1.42688     -148.761 
0.00267886     0.780000     -90.0000 
-0.00321450      1.54208     -123.896 
-6.41165e-05     0.688767     -115.821 
0.00549071     0.667533     -81.3844 
-0.000665176     0.680294     -114.305 
0.00863309     0.260768      4.39867 
-0.00297368      1.73217     -143.924 
-0.00153875     0.632456     -108.435 
0.000954423      1.34715     -139.214 
-0.00130257     0.806226     -113.385 
0.000685306     0.456070     -74.7449 
-0.000507632     0.672309     -112.751 
0.000798604      1.53675     -128.660 
0.000419948     0.780256     -91.4688 
-0.000598166      1.53101     -123.275 
0.00171677      1.58619     -138.066 
-0.00772681     0.156205      140.194 
0.00113498     0.300000      0.00000 
-0.00528674     0.581378     -26.5651 
-0.000836957     0.121655     -170.538 
0.000154705     0.300666      3.81404 
-0.00602937     0.126491     -161.565 
0.00131483     0.687314     -81.6341 
-0.00633171     0.423792     -109.290 
-0.000509524     0.277849     -120.256 
0.00108850     0.228035     -37.8750 
0.00336117     0.212603     -41.1859 
-0.00331559     0.616117     -103.134 
-0.0130698     0.572713     -24.7751 
0.00223195     0.690507     -79.9920 
-0.00245716     0.260768     -122.471 
0.00462078     0.356090     -38.1572 
0.00215358     0.200000     -36.8699 
0.00154184     0.184391     -40.6013 
-0.00318038     0.523450      6.58195 
0.00154279     0.674685     -78.0239 
-9.78705e-05     0.521536     -4.39871 
-0.00452186     0.523450     -6.58196 
-0.00228683     0.627694     -59.3493 
-0.00365072     0.635610     -102.724 
0.000373500     0.694262     -78.3664 
 0.0146925     0.344093     -35.5377 
0.00370872     0.679117     -76.3730 
0.00327623     0.463897     -82.5686 
-0.00100023     0.244131     -124.992 
0.000759098     0.260000      22.6199 
0.000428065     0.216333     -33.6901 
9.16659e-05     0.461736     -85.0303 
-0.00100161     0.610574     -58.3925 
0.000435728     0.244131     -34.9920 
-0.000501023     0.144222     -146.310 
3.46270e-05     0.425206     -48.8141 
3.39634e-05     0.440454     -50.5275 
0.00480840     0.848528     -98.1301 
0.00143479     0.851587     -99.4623 
0.000805326     0.823893     -95.5722 
6.21498e-05     0.800250     -88.5679 
0.00268146     0.367696     -22.3801 
0.00541160     0.282843     -8.13013 
0.000932993     0.302655     -7.59465 
0.00171002     0.291204     -15.9454 
0.000336296     0.286356     -12.0948 
0.000881478     0.266833     -12.9946 
0.00242210     0.360555     -33.6901 
0.000506300     0.272029     -17.1027 
0.000390824     0.379473     -18.4349 
-0.00700378     0.465188     -25.4633 
0.00101725     0.404969     -20.2249 
0.00662929     0.377359     -32.0054 
-0.00157404     0.421900     -5.44035 
0.00530817      1.30614     -154.612 
0.00303291      1.33417     -139.865 
0.00114835     0.644981     -82.8750 
0.00238724      1.31894     -139.304 
0.00224066      1.45121     -150.255 
0.00105460      1.32424     -154.983 
0.00100973     0.662722     -84.8056 
0.000577209      1.49626     -142.058 
0.000103571      1.27562     -138.814 
0.000715305      1.26063     -138.215 
0.000772096      1.53154     -130.764 
0.000882844      1.69729     -134.045 
0.00207307      1.73954     -134.534 
0.000256352      1.49037     -130.101 
0.000675257      1.47757     -129.508 
0.00341448      1.57290     -138.608 
0.000592239      1.75362     -135.000 
0.000553630      1.79611     -135.451 
0.000269745      1.46492     -128.904 
-0.00524669     0.329848     -165.964 
-0.000843140     0.325576      169.380 
-0.00731319     0.215407      158.199 
0.00148011     0.223607     -26.5651 
0.000959222     0.205913     -29.0546 
0.00115892     0.288444     -56.3099 
0.000529704     0.196977     -23.9625 
0.00162043     0.277849     -59.7436 
0.00118202     0.203961     -11.3100 
0.000918686     0.200997     -5.71062 
0.000171466     0.188680     -32.0054 
0.00137312     0.220000      0.00000 
0.000945728     0.268328     -63.4350 
-0.000507162     0.310484     -165.069 
0.00123154     0.200000      0.00000 
-0.00145562     0.291204     -164.055 
-0.0105002     0.466476     -30.9638 
0.000529187     0.220907      5.19439 
0.000453383     0.161245     -60.2551 
0.00230598     0.200997      5.71056 
-0.00121851     0.272029     -162.897 
0.000446530     0.223607      10.3048 
-0.00127755     0.401995     -5.71060 
-0.00240046     0.404475     -8.53078 
-0.00114764     0.252982     -161.565 
-0.00112854     0.234094     -160.017 
0.00153805     0.325576     -47.4896 
0.00180089     0.156205     -39.8056 
-0.00210496     0.215407     -158.199 
-0.000944145     0.240832     -94.7636 
-0.000466771     0.196977     -156.038 
8.57516e-05     0.189737      18.4349 
-0.00865244     0.205913      150.945 
-0.000297669     0.305941      168.690 
0.00209308     0.223607     -10.3049 
0.00435470     0.220907     -5.19444 
0.000782004     0.269072     -48.0128 
8.29358e-05     0.252982      18.4349 
0.000324771     0.234094      19.9831 
-0.00270337     0.420476      2.72629 
0.000235556     0.240832     -48.3665 
0.000886591     0.215407      21.8014 
-0.00389770     0.447214     -26.5651 
-0.00252201     0.424264     -8.13010 
-0.000625977     0.184391     -139.399 
0.000633674     0.196977      23.9625 
0.000474127     0.178885      26.5650 
0.000647738     0.300666      176.186 
0.000195312     0.161245      29.7449 
-0.00444368     0.223607      153.435 
0.00108726     0.722496     -85.2364 
3.69891e-05     0.859069     -102.095 
0.00294178     0.863481     -103.392 
-0.00317639     0.282843     -135.000 
0.000355415     0.724431     -83.6598 
-0.00148317     0.200998     -174.289 
3.20479e-05     0.393954     -23.9625 
0.000525836     0.375766     -25.2011 
0.000777303     0.349857     -30.9638 
-0.00395755     0.203961     -168.690 
-0.000710570     0.538517     -58.6713 
0.000421714     0.741080     -86.9059 
-5.43565e-05     0.588218     -107.819 
-0.000711128     0.594643     -109.654 
0.000141708     0.740270     -88.4518 
-8.85393e-05     0.536656     -63.4350 
-0.000694310     0.545894     -61.5571 
0.00312816     0.835464     -101.041 
3.47733e-05     0.721110     -86.8202 
0.000535292     0.702567     -85.1009 
0.000875776     0.684690     -83.2902 
-0.000342900     0.620323     -110.772 
0.000176159     0.189737     -18.4349 
-0.00194756     0.613515     -109.026 
0.000182253     0.170880     -20.5560 
-0.000904925     0.555698     -59.7436 
0.000369719     0.161245     -29.7449 
0.000671217     0.808950     -98.5308 
-0.00203566     0.832586     -114.102 
0.000190037     0.316228      18.4349 
0.000698119     0.812158     -99.9262 
0.000440486     0.839524     -102.381 
-0.000278264     0.566039     -57.9946 
-3.06624e-05     0.379473     -108.435 
2.04292e-05     0.291204      15.9454 
0.000314752     0.670820     -79.6952 
0.000222621     0.286356      12.0948 
-0.000114919     0.638122     -122.196 
-4.84824e-05     0.354401     -106.390 
-0.000181537     0.444072     -7.76518 
-2.83057e-05     0.349285     -103.241 
0.00583775      1.29692     -153.435 
-0.00378327      1.17201     -126.674 
0.00160107      1.54311     -137.626 
0.00117238      1.52840     -137.121 
-0.00125558      1.39140     -108.435 
0.000246263      1.40428     -125.727 
0.000163182      1.23240     -138.289 
0.000520991      1.24579     -137.603 
-0.00446526      1.70892     -145.008 
2.48918e-05      1.41605     -126.384 
0.00227952      1.51486     -137.675 
6.83143e-05      1.42801     -127.030 
0.000108292      1.44014     -127.666 
0.000103134      1.45245     -128.290 
-0.00203172      1.15603     -127.266 
0.00172668      1.25252     -109.592 
0.000329315      1.30384     -138.731 
9.11711e-05      1.51855     -130.192 
-0.00134415      1.38521     -107.650 
0.000247396      1.52971     -138.180 
-0.000328082      1.59298     -151.504 
-0.00353802      1.58354     -152.140 
5.63028e-05      1.76782     -134.542 
0.00102178      1.32378     -153.048 
-0.00221207      1.78045     -141.843 
-0.000286913      1.16825     -128.047 
0.000705355      1.74643     -129.890 
0.000174718      1.54467     -131.325 
0.000178201      1.60312     -123.294 
0.00151225      1.55795     -138.122 
0.000742881      1.37768     -140.301 
0.00127806      1.59223     -122.692 
0.00139858      1.02956     -114.075 
0.000325753      1.55795     -131.878 
0.000119496      1.34952     -140.412 
0.000672698      1.39313     -140.826 
0.00106638      1.23369     -109.904 
-0.000976382      1.52552     -124.315 
0.000755621      1.33297     -152.281 
2.95542e-05      1.36499     -140.947 
0.000143243      1.38058     -141.470 
0.000469648      1.40869     -141.340 
0.000638741      1.57137     -132.421 
-0.000816609      1.20000     -126.870 
8.13613e-05      1.39628     -141.981 
-8.97941e-06      1.21606     -126.304 
-0.000405045      1.25363     -123.944 
0.00128878      1.42436     -141.843 
-0.000557622      1.27028     -123.440 
8.27529e-06      1.59962     -132.466 
0.000147322      1.35070     -152.676 
0.000338937      1.12161     -111.991 
-0.000198032      1.27624     -122.196 
0.000159416      1.44014     -142.334 
1.51016e-05      1.58795     -139.086 
-0.00326643     0.752861     -50.3893 
-0.000479858     0.344093     -144.462 
-0.000673864     0.349285      166.759 
-0.00231053     0.356090     -141.843 
-0.000364832     0.184391      167.471 
-0.000233576     0.393954     -156.038 
0.00237447      1.02313     -94.4846 
-0.000136216     0.335261      162.646 
-0.00281180     0.602993      5.71059 
-0.000265782     0.181108      173.660 
-0.00215216     0.653911     -23.4287 
-0.000218861     0.200000     -180.000 
0.000218302     0.349285     -23.6294 
0.000321149     0.704557     -83.4802 
-0.000617181     0.220907     -174.806 
-0.000247910     0.243311     -170.538 
-0.00130318     0.223607     -169.695 
-0.00252016     0.646220     -21.8014 
-0.000521090     0.181108     -173.660 
0.00185200     0.329848      14.0362 
0.000836382     0.233238     -30.9638 
-0.00122302     0.651460     -107.879 
-0.000888666      1.18811     -126.098 
0.00183050     0.345253      10.0080 
-7.66376e-05      1.47146     -121.097 
-0.000163864     0.197990      135.000 
-0.000831032      1.62825     -152.176 
-0.000175263      1.46123     -120.426 
-0.00278001      1.75317     -145.222 
0.000498713     0.684105     -74.7449 
-0.00197887     0.601332      3.81406 
0.000862125     0.698570     -76.7595 
0.000903525      1.32740     -149.184 
-0.00155749      1.59248     -154.722 
-0.000347309     0.858836     -117.759 
-0.000171003     0.184391      130.601 
-0.00481549     0.639062     -20.1363 
0.000202539      1.62604     -121.931 
-8.22431e-05      1.45121     -119.745 
-0.000207746     0.172046      125.538 
-0.000859064     0.645601     -106.189 
0.00151256      1.63670     -122.525 
-0.000111601      1.44941     -117.979 
-0.000809764     0.670522     -107.354 
-0.000405255      1.44014     -117.277 
-0.000164374     0.161245      119.745 
0.000931890      1.51644     -131.257 
0.00117211     0.703420     -75.1735 
0.00109937      1.34462     -149.621 
-0.000705334      1.43108     -116.565 
-0.000859072     0.152315      113.199 
-0.000492989     0.600333      1.90915 
-0.00235941     0.184391     -167.471 
0.00145513     0.523450      173.418 
0.000745725     0.250599     -28.6105 
-0.000223928      1.17644     -125.311 
-0.000528754      1.44028     -115.498 
6.30351e-05      1.27781     -140.080 
-2.55023e-05     0.600000      0.00000 
-5.05597e-05     0.600333     -1.90916 
0.000194428     0.761052     -86.9872 
-0.000252963     0.601332     -3.81408 
0.000264677      1.32136     -140.528 
2.45446e-05     0.718053     -77.1250 
0.000155432     0.729932     -80.5377 
-0.000273124     0.602993     -5.71060 
8.14406e-05     0.744312     -83.8298 
0.000270160     0.241661     -24.4440 
0.000352649     0.364966      9.46232 
0.000281556     0.335261      17.3540 
-0.000246753      1.16017     -125.882 
-0.000152080     0.640312     -104.470 
-0.000174236      1.92354     -134.157 
0.000104356      1.50333     -130.684 
0.000127084      1.33686     -141.072 
-2.29848e-05     0.664831     -105.709 
-2.28510e-05      1.80000     -143.130 
 0.0105755      1.68107     -87.9546 
8.72668e-05      1.66048     -88.6196 
0.00189661      1.62308     -93.5323 
0.00199091      1.68190     -87.2737 
0.00222397      1.60312     -93.5763 
0.00168577      1.70188     -87.3057 
0.000329387      1.60449     -85.7108 
0.000310590      1.60611     -84.9994 
0.000385183      1.60798     -84.2894 
0.000929619      1.72186     -87.3370 
0.000406841      1.61009     -83.5812 
0.000408024      1.61245     -82.8750 
0.000387443      1.72105     -88.0021 
0.000100032      1.61505     -82.1709 
0.00184660      2.13663     -136.897 
0.00274225      2.16490     -136.872 
0.00151562      2.12207     -136.528 
0.000442749      2.03666     -135.796 
0.000798328      2.19317     -136.848 
0.00107496      1.99409     -135.406 
0.000398399      2.22144     -136.824 
-0.000410295     0.926499     -13.7363 
-0.00321830     0.941488     -12.2648 
-0.00253026      2.56912     -101.222 
0.00133622     0.800000      143.130 
-0.00169870      5.45996     -140.947 
-0.00159127      4.65145     -59.7968 
0.000405037      1.84141     -8.74616 
-0.00189677      4.96488      43.8575 
0.00145458      1.82483     -9.46232 
-0.000850936      2.08634     -150.732 
-0.000734474      1.55653     -62.4472 
0.00122357      1.51182      62.4180 
0.000669047     0.788162      144.293 
-0.000350469      2.56726      62.6365 
0.000536561     0.854400      106.314 
-0.00531116      3.10876     -40.0416 
-0.000504374      2.57651      62.2415 
-0.000495564      4.92215     -40.5508 
-0.000660191      7.06326     -49.3635 
-0.000500344      7.04809     -49.2576 
-0.000189487      2.10381     -150.998 
-0.000311091     0.957079     -10.8403 
0.000709687      5.43647      32.9885 
0.000308194      4.48576     -46.9874 
-0.00115698      4.66154     -59.5843 
-6.29776e-05      1.28250      3.57633 
-0.000235284      1.30246      3.52145 
-0.000226425      2.56531     -100.784 
0.000288599     0.860233      107.592 
0.000965522      2.97617     -53.7462 
-0.00113453      4.69527      134.655 
-0.00121395      5.17015      39.6637 
-0.000345882     0.976729     -10.6197 
-6.05393e-05      2.09619     -150.255 
-0.00150153      4.27387      166.744 
-6.01267e-05      2.09313     -152.700 
0.000940837      5.52482     -33.6325 
-0.000281326      4.47021      60.2233 
0.000116797     0.804487      145.125 
0.000286119      6.36296      147.059 
0.00123020      4.50040     -47.1611 
-0.000739784      4.44072     -54.1623 
-0.000173178      2.11092     -152.949 
-0.000172567      2.59422      62.4472 
0.000389267      4.88729      164.087 
0.000847695      3.02324      108.914 
-0.00118979      3.62138     -68.9625 
5.62596e-05      5.68690      136.425 
-0.00114360      2.08403     -153.189 
-0.000562058      2.60354      62.0570 
0.00115802      1.50266      63.0939 
0.00129552      2.46917      35.1061 
0.000411075      5.67242      136.286 
0.000253764      1.01980      115.560 
0.000108163      4.69911      120.713 
-0.000157744      4.93737     -40.3999 
0.00156726      5.41970      33.1036 
0.000308308      6.35711      146.810 
0.000201421     0.746726      159.624 
-0.000464972      1.46997      146.094 
0.00153786      4.70935      120.922 
0.000584251      4.90653      164.151 
-0.000101313     0.992975     -9.27260 
0.000244277     0.866487      108.853 
-0.000474351      2.13251     -159.696 
0.00275138      5.53592     -33.8049 
-0.00125170      5.14198      39.6344 
-0.000235960      4.54863      56.6593 
0.00122629      1.86987     -122.330 
0.000280817      3.01682      108.555 
-4.90477e-05      4.95262     -40.2499 
0.000300716      1.78885     -10.3048 
-0.000573213      5.56435      174.638 
-4.85788e-05      4.71445     -16.5130 
0.00294489      4.51402     -46.9749 
-0.000506680      5.00676     -130.626 
-0.000610230     0.863713     -42.1844 
0.000354806      6.34038      146.711 
0.000445777      5.65799      136.146 
-0.000681847      4.73362     -16.4442 
9.29074e-05      1.02859      116.565 
0.000226660      4.21900     -121.430 
-0.000425607      4.67170     -59.3728 
-0.00103741      4.25441      166.682 
0.000729849      2.60714     -55.9442 
0.000134291     0.728011      159.076 
-0.000175599      4.96790     -40.1009 
4.53310e-05      1.04652      116.075 
-0.000852488      3.61425     -69.2584 
0.00169753      6.21328     -145.491 
-0.000254030      2.99827      17.4680 
-0.00103710      4.68124      134.481 
-8.60141e-05      7.05025     -49.4869 
-0.000324359      4.44531     -54.5223 
0.000926175      1.05546      117.051 
0.000131074      4.92577      164.214 
0.000756202      3.02952      108.076 
-0.00190972      3.87696     -50.2323 
-0.000249183      2.56164     -100.345 
-0.000583347      5.61616     -140.926 
-0.000804019      4.13091      175.835 
0.00104050      2.45284      35.3748 
4.40868e-05      2.76203     -79.9920 
8.74667e-05      3.35148     -149.916 
0.000129551      4.92037      164.438 
-0.000831874      4.99376     -130.452 
0.000528276      2.75862     -80.4011 
-0.000843913      2.07509     -153.682 
0.000127854      4.23608     -121.289 
0.000805511      3.36155     -149.621 
0.000414644      3.52369     -137.070 
-0.000122058      4.81568      151.200 
-0.000533228      2.10190     -153.435 
0.000201163     0.709366      158.499 
0.000691382      4.93964      164.501 
-8.14133e-05      4.48758      60.3501 
0.000122988      4.24650     -121.519 
-4.15041e-05      2.33350      135.347 
-0.000921577      5.22444     -143.876 
0.000502693      5.64358      136.005 
0.000789642      2.96439     -54.0579 
-0.00146960      4.18187     -111.903 
-0.000958521      5.04210     -39.6892 
0.000428834      6.31804      146.360 
-0.000277263      2.15128     -159.880 
0.000451973      4.26357     -121.379 
0.000117757      3.48695     -101.245 
0.000733389      2.60192     -55.3327 
-0.000975421     0.878635     -41.3086 
-0.000461484      4.22171     -26.4437 
-0.000221329      5.35769     -116.852 
-0.000526974      5.54635      174.413 
-0.000537132      4.85518      39.9869 
-7.45862e-05      2.58132     -100.265 
-0.000532269      2.88444     -33.6901 
-0.000141470      3.04243      17.6012 
-0.000457820      4.47772      60.5725 
0.000773120      1.47580      63.4349 
0.000579012      3.48310     -100.923 
-0.000102045      5.00759      43.7054 
-0.00139340      2.66361     -100.382 
0.000535009      2.38680      175.675 
-0.000558607      5.09345      151.120 
0.000146633     0.690797      157.891 
3.74492e-05      2.69474      114.092 
-0.00112710      3.06150      17.4880 
-0.000317003      3.72800      73.8013 
0.000575395      2.70496      113.532 
-3.67842e-05      7.03727     -49.6107 
-0.000340543      3.64445      40.7718 
0.000170311      4.72424     -68.6490 
0.00251091      5.40296      33.2195 
0.000511454     0.799250      148.299 
-0.000509993      5.05751     -39.5445 
0.000279093      3.85175     -101.077 
-0.000234846      5.02207      43.5477 
0.000490215      2.75536     -80.8112 
-0.000728654      5.00899     -130.304 
-3.54447e-05      3.88978     -50.0058 
-0.000570503      3.60722     -69.5555 
0.000508936      1.88064     -122.845 
0.000633610      2.18330      3.15072 
6.94972e-05     0.672309      157.249 
0.00100943      4.29106     -121.468 
0.000233855      3.50069      173.768 
0.000713750      5.62921      135.864 
-0.000196585      4.72449      36.0452 
0.000818373      2.36144      27.2161 
-0.000100947      5.66879     -138.719 
6.76361e-05      3.02338      107.716 
-0.000100783      4.71275      35.8486 
-0.00316826      6.39525     -150.388 
-0.000275931      4.23495      166.620 
0.000590654      4.95891      164.562 
-6.74488e-05      4.50422     -109.722 
0.000673518      2.61335     -54.9721 
0.00171125      1.74413     -40.8151 
0.000436521      5.08567      140.425 
-0.000130081      3.25509      120.662 
0.000345854      3.50907     -136.848 
-6.44833e-05      3.61906     -69.9628 
-0.000218380      4.49751     -109.482 
3.29770e-05     0.653911      156.571 
0.000312941      1.06471      118.009 
-0.00101822      2.94333      64.6538 
-9.55798e-05      3.74721      73.8866 
-0.000906314      2.96007     -126.483 
-0.00127965      4.89869      39.8655 
-0.00104146      3.24493      120.358 
-9.39293e-05      4.20381     -26.5651 
-0.000213844      4.69297      34.2319 
-0.000119135      4.68192     -59.1622 
-0.000595735      3.62932      40.9780 
0.000146411      3.03645      107.241 
0.000177102      1.69009     -129.719 
0.000152128      4.71699     -68.8753 
-3.13330e-05      5.68384     -138.852 
0.000984926      2.69704      113.143 
-0.000150143      6.21134     -72.3818 
-0.000438249      7.66188     -131.932 
-0.000383918      2.40832      57.8937 
-0.00186771      7.25460     -140.033 
-0.000179891      4.68158      134.135 
-0.00116717      2.17007     -160.062 
0.00115231      3.06444      52.1578 
-0.00132860      3.42117      40.0200 
-5.99061e-05      5.69702     -138.701 
8.60444e-05      3.73052     -4.30447 
-0.000169664      5.36675     -117.043 
-8.80376e-05      5.58802     -140.956 
0.000142871      4.05660     -40.6013 
0.000542959      6.02717      148.156 
0.000169268      4.71966      121.130 
-0.000304325      5.23626     -143.699 
2.95137e-05      4.50040      47.1611 
-0.000227289      4.57108      25.6681 
-0.000333827      4.66519      34.1670 
0.000459571      1.09179      118.443 
0.000699421      4.50156      47.5208 
-0.000237176      4.11096      175.815 
-0.000301843      3.26980     -71.4542 
-0.000140257      5.71206     -138.833 
0.000299243      2.40865      35.5377 
0.000200287      2.94211      46.1017 
-5.69163e-05      6.28067     -72.1997 
0.000208382      3.50657     -101.182 
0.000854490      5.61487      135.722 
0.000218737      4.97819      164.624 
-0.000299436      2.42528      58.1449 
-0.000243645      6.29971     -72.2553 
-0.000342143      4.20595      161.134 
-0.000135750      4.49515      60.6978 
-0.000155570      4.74068      35.9030 
0.000209159      4.71296     -68.3340 
0.000763309     0.809938      147.095 
-0.000719066      4.48232     -32.9810 
-0.000337650      4.66768      133.958 
-0.000509579      7.67526     -132.043 
-0.000104186      4.49088     -109.242 
0.000177816      3.64664      29.9398 
0.000309203      2.62488     -54.6146 
0.000102499      1.70294     -130.236 
-0.000253643      5.52645      174.393 
-0.00100048      4.57978      25.8936 
-2.68623e-05      5.60357     -141.085 
0.000179968      2.96007     -53.5172 
0.000193809      3.69221     -4.66055 
0.000660707      4.31856     -121.555 
0.000214589      4.08480     -40.6317 
0.000102687      4.81518     -147.036 
5.17461e-05      2.42528      176.217 
-0.000533673      2.43590      57.7453 
0.000390427      4.99223      164.906 
-0.000320276      4.62087      34.2403 
-0.000226642      6.29365     -72.4287 
-0.000125835      5.72713     -138.965 
-0.000484023      4.48540      60.9206 
-0.000126003      3.79858     -171.827 
0.000572303      4.51314     -46.6161 
-0.000242603      2.41479     -148.548 
-0.000218166      1.88521      94.2588 
-0.000232035      5.25239     -143.828 
-0.000637444      4.25018      18.0939 
-0.000220636      3.88191      116.961 
0.000293000      2.42396      26.9879 
-0.000119962     0.893756     -40.4622 
-0.000907953      4.95762      39.5984 
0.000122025      5.43194     -130.670 
-7.50549e-05      3.78846     -161.852 
-2.52235e-05      4.99608     -130.129 
-0.000217713      3.61425      41.1859 
0.000415981      1.91927     -123.524 
-0.000169019      2.56500      93.5763 
0.000437449      6.24109     -145.444 
0.00113169      4.50289      47.8804 
0.000329634      1.10145      119.358 
-0.000721921      4.20043     -111.801 
9.74039e-05      2.91163      174.877 
0.000380865      4.93708      55.7306 
-0.000409870      2.68328     -100.305 
-9.73109e-05      3.76946     -161.757 
-7.28712e-05      4.21848      161.479 
4.88351e-05      4.79842     -146.906 
-7.16213e-05      5.44445     -140.814 
-0.000340013      5.11097      151.228 
-0.000159949      3.77878     -171.784 
0.000119879      3.40124     -105.344 
-7.10665e-05      2.53645     -142.046 
-2.41495e-05      3.60555     -70.5600 
0.000188253      3.86430      25.7693 
2.40460e-05      3.85565     -101.368 
4.77124e-05      5.54707     -33.9765 
-2.39614e-05      4.58737      56.3792 
0.000116707      3.65322     -102.971 
-9.44802e-05      4.30488     -28.5892 
-0.000187958      3.75047     -161.662 
-4.74668e-05      6.28764     -72.6025 
0.000251347      3.32920      82.4054 
0.000935219      5.90962      41.2954 
0.000159829      2.63651     -54.2602 
-0.000112902      4.23745      161.565 
-0.000272093      5.92895     -73.3378 
0.000296020      3.37668     -105.106 
-4.68288e-05      7.69012     -131.943 
-0.000247041      6.21627     -153.435 
9.11115e-05      5.53050     -34.0923 
-0.000530340      4.02000      180.000 
-0.000222169      3.89102      117.224 
0.000750072      5.13404      26.3654 
-4.59884e-05      5.74223     -139.096 
0.000265507      5.11723      162.486 
-0.000156032      4.59308      34.1744 
-2.32235e-05      3.11133     -39.5226 
-6.85850e-05      2.54786      94.5022 
-0.000180663      7.76505     -128.936 
0.000200574      2.54071     -1.35319 
-0.000417217      5.50854      174.165 
-0.000549800      7.70351     -132.054 
-0.000112985      3.75617     -172.042 
-0.000376636      4.28733     -28.7171 
-0.000113130      6.30079     -72.8304 
2.29988e-05      5.43654     -79.1861 
0.000134948      5.45458      156.443 
-0.000266693      3.73149     -161.565 
0.000241820      3.84630      25.8989 
-4.52460e-05      5.98682      158.234 
2.27223e-05      2.68924      112.751 
6.76308e-05      4.90245     -27.7150 
0.000109269      3.87525     -101.310 
-0.000351162      3.58603      48.8441 
-0.000108949      4.76861      35.9567 
0.000239574      3.05221      52.4543 
-4.43198e-05      4.09101      175.795 
8.85640e-05      3.64878     -102.665 
-0.000130451      5.75535     -138.945 
0.000260826      5.11848      157.242 
-0.000173374      2.40674      94.2892 
-4.43107e-05      3.86419     -50.4602 
0.000325176      4.91093     -27.3999 
8.67603e-05      2.31905      113.912 
-0.000259508      4.20790     -112.054 
0.000216346      4.86378      18.9565 
0.000194013      4.30813     -121.329 
-0.000130083      6.29492     -73.0043 
2.19347e-05      3.87923     -101.600 
8.59729e-05      5.00640      165.187 
-0.000193273      7.76211     -129.144 
2.18541e-05      1.11140      120.256 
8.62515e-05      5.44430      156.166 
0.000107393      3.32662      82.7468 
-0.000406574      6.38539     -150.544 
-8.58964e-05      1.40528     -65.6235 
0.000214134      6.64581     -117.028 
-0.000150164      6.22524      153.270 
4.30218e-05      3.71214     -4.63546 
6.38989e-05      4.73396      121.877 
0.000149286      3.62491     -102.426 
-6.39618e-05      3.86699     -50.8774 
6.40403e-05      2.42495      35.2630 
8.51897e-05     0.793221      146.310 
2.13411e-05      5.29381      29.6643 
-2.13581e-05      5.99426      158.057 
2.13094e-05      4.51509      47.3336 
-6.35020e-05      3.57290      49.0856 
-6.34475e-05      6.30251     -73.4052 
-6.34409e-05      3.44384      101.049 
-2.11960e-05      4.99316      43.8640 
4.22180e-05      5.42601      156.080 
4.22041e-05      6.39400      148.299 
-4.21846e-05      2.18888     -160.241 
-2.11296e-05      3.71252     -161.467 
2.11057e-05      7.29608     -124.953 
2.11226e-05      3.37153     -104.778 
-2.10732e-05      4.62623      56.1038 
-2.10566e-05      3.87324      117.359 
